* Measurement data measured by REW V5,19
* Source: Input device not selected, no input selected, R, volume: no control
* Format: 128k Log Swept Sine, 4 sweeps at -12,0 dBFS  With no timing reference
* Dated: 19.08.2021 14:52:22
* REW Settings:
*  C-weighting compensation: On
*  Target level: 75.0 dB
* Note: 
* Measurement: vk4s2 t4
* Smoothing: 1/24 octave
* Frequency Step: 1/48 octave
* Start Frequency: 20.3 Hz
*
* Freq(Hz)	SPL(dB)	Phase(degrees)
20.0	7.610000
20.299999	7.625000
20.6	7.639524
20.9	7.644286
21.200001	7.658571
21.4	7.668095
21.799999	7.676667
22.0	7.680000
22.4	7.690000
22.700001	7.697273
23.0	7.700000
23.299999	7.703478
23.6	7.710000
24.0	7.710000
24.299999	7.715833
24.700001	7.720000
25.0	7.720000
25.4	7.720000
25.799999	7.720000
26.200001	7.720000
26.5	7.720000
26.9	7.720000
27.200001	7.720000
27.6	7.720000
28.0	7.720000
28.5	7.720000
29.0	7.720000
29.5	7.720000
30.0	7.720000
30.4	7.710000
30.700001	7.710000
31.1	7.706452
31.5	7.700000
32.0	7.690000
32.5	7.682121
33.0	7.676667
33.5	7.670000
34.0	7.656765
34.5	7.642059
35.0	7.630000
35.5	7.616857
36.0	7.599167
36.5	7.580811
37.0	7.561667
37.5	7.536316
38.200001	7.509474
38.700001	7.483158
39.5	7.442000
40.0	7.417000
40.599998	7.385500
41.200001	7.347317
41.799999	7.308095
42.5	7.267143
43.099998	7.225116
43.700001	7.183636
44.400002	7.135333
45.0	7.095333
45.5	7.056000
46.200001	6.994042
46.799999	6.946957
47.5	6.892553
48.200001	6.824167
48.700001	6.778125
49.400002	6.714898
50.0	6.656800
50.799999	6.592800
51.5	6.537115
52.200001	6.473846
53.0	6.412308
53.799999	6.337778
54.5	6.272963
55.200001	6.208214
56.0	6.141091
57.0	6.067500
58.0	5.990000
59.0	5.921034
60.0	5.845593
60.799999	5.765738
61.5	5.696885
62.200001	5.618064
63.0	5.540952
64.0	5.455469
65.0	5.377344
66.0	5.300758
67.0	5.220000
68.0	5.130882
69.0	5.047206
70.0	4.966000
71.0	4.880563
72.0	4.796056
73.0	4.702603
74.0	4.620811
75.0	4.539730
76.199997	4.453948
77.5	4.362208
78.800003	4.269615
80.0	4.190500
81.199997	4.101111
82.5	4.015122
83.800003	3.920723
85.0	3.835294
86.199997	3.758824
87.5	3.670690
88.5	3.602045
90.0	3.500667
91.199997	3.415778
92.5	3.325217
93.800003	3.241290
95.0	3.158737
96.199997	3.070316
97.5	2.985714
98.800003	2.892857
100.0	2.807677
101.5	2.725294
103.0	2.637059
104.400002	2.555428
106.0	2.470000
107.5	2.378889
109.0	2.295556
110.599998	2.207636
112.0	2.130625
113.800003	2.025929
115.0	1.954737
117.199997	1.828104
118.0	1.783305
120.599998	1.651667
122.0	1.586364
124.099998	1.483387
125.0	1.439839
126.5	1.367619
128.0	1.291172
131.5	1.123969
132.0	1.101069
134.0	1.010526
136.0	0.927647
138.0	0.843043
140.0	0.761942
143.0	0.655493
145.0	0.595517
147.5	0.509589
150.0	0.425168
152.5	0.352105
155.0	0.270390
157.5	0.190128
160.0	0.110943
162.5	0.032981
165.0	-0.043636
167.5	-0.119217
170.0	-0.193824
172.5	-0.267035
175.0	-0.339422
177.5	-0.410621
180.0	-0.481011
182.5	-0.548132
185.0	-0.608533
187.5	-0.675968
190.0	-0.740105
192.5	-0.798272
195.0	-0.854433
197.5	-0.915685
200.0	-0.966281
203.0	-1.026219
206.0	-1.075024
209.0	-1.133237
212.0	-1.177925
214.0	-1.206197
218.0	-1.262752
220.0	-1.299450
224.0	-1.353919
227.0	-1.382655
230.0	-1.413624
233.0	-1.445086
236.0	-1.480847
240.0	-1.507311
243.0	-1.529585
247.0	-1.562408
250.0	-1.578347
254.0	-1.598538
258.0	-1.620000
262.0	-1.635441
265.0	-1.646882
269.0	-1.661940
272.0	-1.673100
276.0	-1.687774
280.0	-1.700000
285.0	-1.700000
290.0	-1.707500
295.0	-1.710000
300.0	-1.710000
304.0	-1.710000
307.0	-1.710000
311.0	-1.710000
315.0	-1.710000
320.0	-1.710000
325.0	-1.707994
330.0	-1.700000
335.0	-1.700000
340.0	-1.692663
345.0	-1.687971
350.0	-1.680000
355.0	-1.670000
360.0	-1.665209
365.0	-1.651354
370.0	-1.647669
375.0	-1.640000
382.0	-1.630000
387.0	-1.622526
395.0	-1.610000
400.0	-1.599323
406.0	-1.590000
412.0	-1.579612
418.0	-1.570000
425.0	-1.558396
431.0	-1.544312
437.0	-1.540000
444.0	-1.524444
450.0	-1.510942
455.0	-1.499846
462.0	-1.484510
468.0	-1.471530
475.0	-1.456617
482.0	-1.441904
487.0	-1.431532
494.0	-1.417201
500.0	-1.405070
508.0	-1.379112
515.0	-1.365361
522.0	-1.351795
530.0	-1.336515
538.0	-1.321445
545.0	-1.298456
552.0	-1.281273
560.0	-1.261171
570.0	-1.243386
580.0	-1.225910
590.0	-1.208727
600.0	-1.191832
608.0	-1.167035
615.0	-1.144029
622.0	-1.121290
630.0	-1.102800
640.0	-1.073950
650.0	-1.051382
660.0	-1.026049
670.0	-1.001867
680.0	-0.972094
690.0	-0.942749
700.0	-0.913840
710.0	-0.885313
720.0	-0.857191
730.0	-0.829477
740.0	-0.802125
750.0	-0.775160
762.0	-0.743254
775.0	-0.709261
788.0	-0.673710
800.0	-0.635441
812.0	-0.605506
825.0	-0.573570
838.0	-0.532168
850.0	-0.503582
862.0	-0.463093
875.0	-0.425316
885.0	-0.393694
900.0	-0.353039
912.0	-0.313086
925.0	-0.260434
938.0	-0.218346
950.0	-0.180000
962.0	-0.139572
975.0	-0.091703
988.0	-0.042329
1000.0	-0.003828
1015.0	0.056006
1030.0	0.113761
1044.0	0.159249
1060.0	0.220566
1075.0	0.286881
1090.0	0.350749
1106.0	0.421170
1120.0	0.482585
1138.0	0.568768
1150.0	0.632021
1172.0	0.736302
1180.0	0.777293
1206.0	0.918536
1220.0	0.988325
1241.0	1.091227
1250.0	1.140580
1265.0	1.232293
1280.0	1.317514
1315.0	1.523966
1320.0	1.553977
1340.0	1.665345
1360.0	1.784533
1380.0	1.901835
1400.0	2.017633
1430.0	2.178062
1450.0	2.289640
1475.0	2.417120
1500.0	2.552301
1525.0	2.700759
1550.0	2.847860
1575.0	2.992599
1600.0	3.128896
1625.0	3.284783
1650.0	3.448112
1675.0	3.599397
1700.0	3.752985
1725.0	3.923961
1750.0	4.087367
1775.0	4.258523
1800.0	4.419388
1825.0	4.593469
1850.0	4.767447
1875.0	4.942707
1900.0	5.115771
1925.0	5.286660
1950.0	5.465157
1975.0	5.637057
2000.0	5.805953
2030.0	5.987311
2060.0	6.156429
2090.0	6.328604
2120.0	6.500456
2140.0	6.613716
2180.0	6.837040
2200.0	6.947190
2240.0	7.162492
2270.0	7.314942
2300.0	7.464713
2330.0	7.619604
2360.0	7.764870
2400.0	7.923851
2430.0	8.044758
2470.0	8.192795
2500.0	8.309246
2540.0	8.428523
2580.0	8.552467
2620.0	8.676239
2650.0	8.755825
2690.0	8.846126
2720.0	8.913006
2760.0	9.001042
2800.0	9.081488
2850.0	9.142258
2900.0	9.204705
2950.0	9.256255
3000.0	9.306906
3040.0	9.337909
3070.0	9.357647
3110.0	9.393660
3150.0	9.414668
3200.0	9.420000
3250.0	9.413923
3300.0	9.410000
3350.0	9.403465
3400.0	9.387143
3450.0	9.357810
3500.0	9.338874
3550.0	9.305573
3600.0	9.263380
3650.0	9.219077
3700.0	9.170789
3750.0	9.130291
3820.0	9.064546
3870.0	9.013789
3950.0	8.933653
4000.0	8.890990
4060.0	8.821368
4120.0	8.752165
4180.0	8.685010
4250.0	8.611604
4310.0	8.541101
4370.0	8.471684
4440.0	8.391774
4500.0	8.321248
4550.0	8.258857
4620.0	8.172504
4680.0	8.104743
4750.0	8.015220
4820.0	7.936999
4870.0	7.874772
4940.0	7.788724
5000.0	7.715896
5080.0	7.645183
5150.0	7.576385
5220.0	7.508556
5300.0	7.432136
5380.0	7.344223
5450.0	7.271910
5520.0	7.199306
5600.0	7.122561
5700.0	7.036489
5800.0	6.949117
5900.0	6.863245
6000.0	6.774283
6080.0	6.670021
6150.0	6.573527
6220.0	6.482503
6300.0	6.379739
6400.0	6.253163
6500.0	6.118504
6600.0	5.995739
6700.0	5.868573
6800.0	5.711622
6900.0	5.552958
7000.0	5.401196
7100.0	5.241499
7200.0	5.053372
7300.0	4.859175
7400.0	4.667850
7500.0	4.478996
7620.0	4.258086
7750.0	4.027531
7880.0	3.799769
8000.0	3.588133
8120.0	3.342510
8250.0	3.081089
8380.0	2.813963
8500.0	2.576471
8620.0	2.315212
8750.0	2.032907
8850.0	1.816003
9000.0	1.494903
9120.0	1.226074
9250.0	0.927354
9380.0	0.632719
9500.0	0.364566
9620.0	0.086249
9750.0	-0.214062
9880.0	-0.506685
10000.0	-0.773584
10150.0	-1.081790
10300.0	-1.376471
10440.0	-1.647986
10600.0	-1.953543
10750.0	-2.244389
10900.0	-2.536804
11060.0	-2.844308
11200.0	-3.109950
11380.0	-3.461771
11500.0	-3.693701
11720.0	-4.112660
11800.0	-4.257284
12060.0	-4.683381
12200.0	-4.903753
12410.0	-5.229687
12500.0	-5.367836
12650.0	-5.605484
12800.0	-5.834210
13150.0	-6.365762
13200.0	-6.438066
13400.0	-6.715660
13600.0	-6.988101
13800.0	-7.257717
14000.0	-7.517855
14300.0	-7.886308
14500.0	-8.123745
14750.0	-8.415672
15000.0	-8.715272
15250.0	-9.074042
15500.0	-9.443325
15750.0	-9.807172
16000.0	-10.171314
16250.0	-10.650040
16500.0	-11.125899
16750.0	-11.604175
17000.0	-12.083749
17250.0	-12.693373
17500.0	-13.315338
17750.0	-13.918267
18000.0	-14.547918
18250.0	-15.271635
18500.0	-16.019214
18750.0	-16.755150
19000.0	-17.483102
19250.0	-18.314026
19500.0	-19.137254
19750.0	-19.944366
20000.0	-20.610000