* Measurement data measured by REW V5,19
* Source: Input device not selected, no input selected, R, volume: no control
* Format: 128k Log Swept Sine, 4 sweeps at -12,0 dBFS  With no timing reference
* Dated: 19.08.2021 14:52:22
* REW Settings:
*  C-weighting compensation: On
*  Target level: 75.0 dB
* Note: 
* Measurement: vk4s2 t4
* Smoothing: 1/24 octave
* Frequency Step: 1/48 octave
* Start Frequency: 20.3 Hz
*
* Freq(Hz)	SPL(dB)	Phase(degrees)
20.0	6.970000
20.299999	6.970000
20.6	6.970000
20.9	6.970000
21.200001	6.970000
21.4	6.970000
21.799999	6.970000
22.0	6.970000
22.4	6.970000
22.700001	6.970000
23.0	6.970000
23.299999	6.970000
23.6	6.970000
24.0	6.970000
24.299999	6.970000
24.700001	6.970000
25.0	6.970000
25.4	6.970000
25.799999	6.970000
26.200001	6.970000
26.5	6.970000
26.9	6.970000
27.200001	6.970000
27.6	6.970000
28.0	6.970000
28.5	6.970000
29.0	6.970000
29.5	6.970000
30.0	6.970000
30.4	6.970000
30.700001	6.970000
31.1	6.970000
31.5	6.970000
32.0	6.970000
32.5	6.970000
33.0	6.970000
33.5	6.970000
34.0	6.970000
34.5	6.970000
35.0	6.970000
35.5	6.970000
36.0	6.970000
36.5	6.970000
37.0	6.970000
37.5	6.970000
38.200001	6.970000
38.700001	6.970000
39.5	6.970000
40.0	6.970000
40.599998	6.970000
41.200001	6.970000
41.799999	6.958095
42.5	6.924762
43.099998	6.875116
43.700001	6.839091
44.400002	6.808444
45.0	6.800000
45.5	6.800000
46.200001	6.800000
46.799999	6.800000
47.5	6.800000
48.200001	6.800000
48.700001	6.800000
49.400002	6.800000
50.0	6.789200
50.799999	6.773200
51.5	6.748846
52.200001	6.717885
53.0	6.671731
53.799999	6.640000
54.5	6.640000
55.200001	6.640000
56.0	6.640000
57.0	6.640000
58.0	6.630000
59.0	6.578276
60.0	6.523729
60.799999	6.477869
61.5	6.470000
62.200001	6.469355
63.0	6.443651
64.0	6.403281
65.0	6.341875
66.0	6.300303
67.0	6.300000
68.0	6.270441
69.0	6.226324
70.0	6.183000
71.0	6.150000
72.0	6.142676
73.0	6.130000
74.0	6.125135
75.0	6.086486
76.199997	5.998290
77.5	5.970000
78.800003	5.945769
80.0	5.863750
81.199997	5.821852
82.5	5.801707
83.800003	5.760361
85.0	5.723529
86.199997	5.667059
87.5	5.603908
88.5	5.546705
90.0	5.472222
91.199997	5.405556
92.5	5.343478
93.800003	5.284408
95.0	5.214632
96.199997	5.138842
97.5	5.117959
98.800003	5.094082
100.0	5.035152
101.5	4.962647
103.0	4.918529
104.400002	4.876190
106.0	4.800000
107.5	4.729074
109.0	4.659630
110.599998	4.612545
112.0	4.594643
113.800003	4.523274
115.0	4.470526
117.199997	4.382069
118.0	4.350932
120.599998	4.231667
122.0	4.173636
124.099998	4.097823
125.0	4.061532
126.5	4.001349
128.0	3.936719
131.5	3.763969
132.0	3.741069
134.0	3.660526
136.0	3.577647
138.0	3.504203
140.0	3.437554
143.0	3.328592
145.0	3.255517
147.5	3.169589
150.0	3.070201
152.5	2.970526
155.0	2.864545
157.5	2.766154
160.0	2.680943
162.5	2.592981
165.0	2.515636
167.5	2.424940
170.0	2.325412
172.5	2.232151
175.0	2.130809
177.5	2.041130
180.0	1.958989
182.5	1.875769
185.0	1.785761
187.5	1.695645
190.0	1.617368
192.5	1.546073
195.0	1.468351
197.5	1.392893
200.0	1.325578
203.0	1.235672
206.0	1.147463
209.0	1.060145
212.0	0.974151
214.0	0.915540
218.0	0.785872
220.0	0.730826
224.0	0.632162
227.0	0.563363
230.0	0.488210
233.0	0.404741
236.0	0.317881
240.0	0.226134
243.0	0.170830
247.0	0.121388
250.0	0.059919
254.0	-0.027075
258.0	-0.060000
262.0	-0.097203
265.0	-0.154411
269.0	-0.220000
272.0	-0.220000
276.0	-0.220000
280.0	-0.220000
285.0	-0.220000
290.0	-0.220000
295.0	-0.234660
300.0	-0.274700
304.0	-0.314603
307.0	-0.344216
311.0	-0.375519
315.0	-0.390000
320.0	-0.390000
325.0	-0.390000
330.0	-0.390000
335.0	-0.390000
340.0	-0.390000
345.0	-0.390000
350.0	-0.390000
355.0	-0.390000
360.0	-0.390000
365.0	-0.390000
370.0	-0.390000
375.0	-0.390000
382.0	-0.390000
387.0	-0.390000
395.0	-0.390000
400.0	-0.390000
406.0	-0.390000
412.0	-0.390000
418.0	-0.390000
425.0	-0.390000
431.0	-0.390000
437.0	-0.390000
444.0	-0.390000
450.0	-0.390000
455.0	-0.390000
462.0	-0.390000
468.0	-0.390000
475.0	-0.390000
482.0	-0.390000
487.0	-0.390000
494.0	-0.390000
500.0	-0.390000
508.0	-0.390000
515.0	-0.390000
522.0	-0.390000
530.0	-0.390000
538.0	-0.390000
545.0	-0.390000
552.0	-0.390000
560.0	-0.390000
570.0	-0.390000
580.0	-0.390000
590.0	-0.390000
600.0	-0.390000
608.0	-0.390000
615.0	-0.390000
622.0	-0.390000
630.0	-0.390000
640.0	-0.390000
650.0	-0.390000
660.0	-0.390000
670.0	-0.390000
680.0	-0.390000
690.0	-0.390000
700.0	-0.390000
710.0	-0.390000
720.0	-0.390000
730.0	-0.390000
740.0	-0.390000
750.0	-0.390000
762.0	-0.390000
775.0	-0.390000
788.0	-0.390000
800.0	-0.390000
812.0	-0.390000
825.0	-0.390000
838.0	-0.390000
850.0	-0.390000
862.0	-0.390000
875.0	-0.390000
885.0	-0.390000
900.0	-0.390000
912.0	-0.390000
925.0	-0.334056
938.0	-0.263910
950.0	-0.240000
962.0	-0.209572
975.0	-0.137307
988.0	-0.053493
1000.0	-0.002285
1015.0	0.066006
1030.0	0.147522
1044.0	0.233686
1060.0	0.330792
1075.0	0.437983
1090.0	0.555199
1106.0	0.682339
1120.0	0.783447
1138.0	0.913151
1150.0	1.008031
1172.0	1.179453
1180.0	1.240939
1206.0	1.467699
1220.0	1.581100
1241.0	1.718302
1250.0	1.782174
1265.0	1.897866
1280.0	2.006803
1315.0	2.213966
1320.0	2.244545
1340.0	2.365345
1360.0	2.474533
1380.0	2.586606
1400.0	2.697633
1430.0	2.869069
1450.0	2.989640
1475.0	3.117120
1500.0	3.252301
1525.0	3.385119
1550.0	3.529845
1575.0	3.682599
1600.0	3.828896
1625.0	3.975304
1650.0	4.113301
1675.0	4.269337
1700.0	4.422985
1725.0	4.584465
1750.0	4.747367
1775.0	4.910312
1800.0	5.087127
1825.0	5.259592
1850.0	5.427643
1875.0	5.592707
1900.0	5.765771
1925.0	5.946403
1950.0	6.105157
1975.0	6.266049
2000.0	6.417802
2030.0	6.594202
2060.0	6.748571
2090.0	6.889070
2120.0	7.003637
2140.0	7.060715
2180.0	7.124260
2200.0	7.140000
2240.0	7.135911
2270.0	7.103764
2300.0	7.055559
2330.0	6.968564
2360.0	6.874104
2400.0	6.728919
2430.0	6.617518
2470.0	6.446926
2500.0	6.308725
2540.0	6.109674
2580.0	5.921300
2620.0	5.726112
2650.0	5.576407
2690.0	5.371728
2720.0	5.226820
2760.0	5.027917
2800.0	4.854428
2850.0	4.636883
2900.0	4.408045
2950.0	4.167476
3000.0	3.931106
3040.0	3.744637
3070.0	3.615294
3110.0	3.448041
3150.0	3.289311
3200.0	3.094430
3250.0	2.935303
3300.0	2.791442
3350.0	2.700787
3400.0	2.638571
3450.0	2.623905
3500.0	2.620000
3550.0	2.624809
3600.0	2.665493
3650.0	2.716385
3700.0	2.804826
3750.0	2.899321
3820.0	3.039393
3870.0	3.153975
3950.0	3.349041
4000.0	3.467526
4060.0	3.617264
4120.0	3.779047
4180.0	3.929981
4250.0	4.081112
4310.0	4.217798
4370.0	4.349306
4440.0	4.477162
4500.0	4.565626
4550.0	4.625372
4620.0	4.717496
4680.0	4.795257
4750.0	4.877317
4820.0	4.950834
4870.0	5.005228
4940.0	5.091276
5000.0	5.137052
5080.0	5.174890
5150.0	5.233615
5220.0	5.292289
5300.0	5.300000
5380.0	5.300000
5450.0	5.300000
5520.0	5.300000
5600.0	5.300000
5700.0	5.300000
5800.0	5.308177
5900.0	5.310000
6000.0	5.310000
6080.0	5.304447
6150.0	5.300000
6220.0	5.300000
6300.0	5.300000
6400.0	5.300000
6500.0	5.300000
6600.0	5.300000
6700.0	5.300000
6800.0	5.291966
6900.0	5.271888
7000.0	5.214180
7100.0	5.135731
7200.0	5.093580
7300.0	5.051966
7400.0	4.997957
7500.0	4.930998
7620.0	4.822815
7750.0	4.722690
7880.0	4.622970
8000.0	4.541800
8120.0	4.445739
8250.0	4.323978
8380.0	4.221987
8500.0	4.136254
8620.0	4.045360
8750.0	3.951444
8850.0	3.882948
9000.0	3.781548
9120.0	3.704780
9250.0	3.619118
9380.0	3.530906
9500.0	3.445590
9620.0	3.363206
9750.0	3.268523
9880.0	3.165600
10000.0	3.080678
10150.0	2.985873
10300.0	2.882735
10440.0	2.787705
10600.0	2.680760
10750.0	2.581870
10900.0	2.496627
11060.0	2.401897
11200.0	2.303829
11380.0	2.191255
11500.0	2.117459
11720.0	1.974154
11800.0	1.924302
12060.0	1.759103
12200.0	1.666314
12410.0	1.539079
12500.0	1.480911
12650.0	1.373192
12800.0	1.266606
13150.0	1.042534
13200.0	1.008284
13400.0	0.862411
13600.0	0.747542
13800.0	0.635459
14000.0	0.506073
14300.0	0.324307
14500.0	0.207649
14750.0	0.037840
15000.0	-0.121082
15250.0	-0.277563
15500.0	-0.452723
15750.0	-0.627153
16000.0	-0.761743
16250.0	-0.922596
16500.0	-1.097900
16750.0	-1.274062
17000.0	-1.437916
17250.0	-1.585668
17500.0	-1.738342
17750.0	-1.907423
18000.0	-2.069725
18250.0	-2.232327
18500.0	-2.382618
18750.0	-2.531030
19000.0	-2.656842
19250.0	-2.784316
19500.0	-2.887473
19750.0	-2.977152
20000.0	-3.020000